KingAir200B_W1
T5-a0.0°-84.9m/s-TriUniform-ThickSurf-x0.8m_SL


 Ctrl        Alpha        Beta         CL           CD           CD_viscous   CD_induced   CY           Cm           Cm_viscous   Cm_pressure  Cl           Cn           Cn_viscous   Cn_pressure  CL/CD        CL^(3/2)/CD  1/sqrt(CL)   Lift_(N)     Drag_(N)     Fx_FF_(N)    Fy_FF_(N)    Fz_FF_(N)    Fx_sum_(N)   Fy_sum_(N)   Fz_sum_(N)   Extra_drag_(N)  Fuse_drag_(N)  Cf_Fuse      Vx_(m/s)     Vz_(m/s)     V_(m/s)      Gamma        L_(N.m)      M_(N.m)      N_(N.m)      CPx_(m)      CPy_(m)      CPz_(m)      BM_(N.m)     m.g.Vz_(W)   Drag_x_V_(W)  Efficiency   XCp.Cl       XNP_(m)      Phugoid_Freq._(Hz)  Phugoid_Damping  Short_Period_Freq._(Hz)  Short_Period_Damping_Ratio  Dutch_Roll_Freq._(Hz)  Dutch_Roll_Damping  Roll_Damping  Spiral_Damping  Mass_(kg)    CoG_x_(m)    CoG_z_(m)    
          0            0          -15      0.10767    0.0060012    0.0063367  -0.00033548    0.0062654   -0.0066394   0.00076399   -0.0074034    -0.020577   0.00057496  -9.0014e-05   0.00066498       17.942       5.8874       3.0475        13907       986.07      -43.332       809.26        13907       347.89       815.79        13298            0            0            0       84.748        9.461        84.88       3.1901       -44783      -1608.5       1251.3      0.89388      -3.2011      0.92932        45356   5.2625e+05        65794      -1.1341     0.096247            0            0            0            0            0            0            0            0            0         5670          0.8            0  
          0            0        -14.5      0.10832    0.0060656    0.0063338  -0.00026823     0.006075   -0.0067463   0.00076569    -0.007512    -0.019952   0.00055558  -8.9198e-05   0.00064478       17.858       5.8773       3.0384        13991       981.02      -34.645       784.67        13991       359.96       791.01        13380            0            0            0       84.747       9.4772        84.88       3.2051       -43422      -1634.4       1209.2      0.89542      -3.0854      0.92716        44890   5.2715e+05        66499      -1.4354      0.09699            0            0            0            0            0            0            0            0            0         5670          0.8            0  
          0            0          -14      0.10894    0.0061276    0.0063307  -0.00020306    0.0058828   -0.0068499   0.00076729   -0.0076172    -0.019321   0.00053609  -8.8294e-05   0.00062439       17.779       5.8682       3.0297        14071       976.07      -26.228       759.85        14071       371.65       765.98        13460            0            0            0       84.746       9.4919        84.88       3.2193       -42049      -1659.5       1166.7      0.89689      -2.9707      0.92509        44413   5.2797e+05        67180      -1.9181      0.09771            0            0            0            0            0            0            0            0            0         5670          0.8            0  
          0            0        -13.5      0.10955    0.0061866    0.0063266     -0.00014    0.0056888   -0.0069504   0.00076869   -0.0077191    -0.018684   0.00051668   -8.713e-05   0.00060381       17.707       5.8607       3.0213        14150       971.12      -18.082       734.79        14150       382.96       740.72        13538            0            0            0       84.745       9.5041        84.88       3.2323       -40663      -1683.9       1124.5       0.8983      -2.8568      0.92311        43925   5.2864e+05        67826      -2.8131     0.098407            0            0            0            0            0            0            0            0            0         5670          0.8            0  
          0            0          -13      0.11013    0.0062431    0.0063221  -7.9056e-05    0.0054931   -0.0070475   0.00076995   -0.0078175    -0.018041   0.00049724  -8.5803e-05   0.00058304       17.641       5.8543       3.0133        14225       966.24      -10.211       709.51        14225       393.89       715.24        13612            0            0            0       84.744       9.5146        84.88       3.2445       -39264      -1707.4       1082.2      0.89965      -2.7439      0.92122        43425   5.2923e+05        68445      -5.0348     0.099081            0            0            0            0            0            0            0            0            0         5670          0.8            0  
          0            0        -12.5       0.1107     0.006297    0.0063173  -2.0258e-05    0.0052957   -0.0071414   0.00077105   -0.0079124    -0.017393    0.0004778  -8.4299e-05   0.00056209       17.579       5.8487       3.0056        14298       961.46      -2.6167       684.01        14298       404.44       689.54        13685            0            0            0       84.743       9.5236        84.88       3.2558       -37853      -1730.2       1039.9      0.90094      -2.6318      0.91941        42915   5.2973e+05        69037      -19.849      0.09973            0            0            0            0            0            0            0            0            0         5670          0.8            0  
          0            0          -12      0.11124    0.0063484    0.0063121   3.6379e-05    0.0050967   -0.0072319   0.00077196   -0.0080039    -0.016739   0.00045838  -8.2594e-05   0.00054098       17.522       5.8441       2.9983        14368       956.75       4.6988       658.31        14368       414.59       663.62        13754            0            0            0       84.742       9.5311        84.88       3.2663       -36431      -1752.1       997.61      0.90217      -2.5206      0.91769        42395   5.3015e+05        69600       11.162      0.10036            0            0            0            0            0            0            0            0            0         5670          0.8            0  
          0            0        -11.5      0.11176    0.0063976    0.0063067   9.0838e-05    0.0048962   -0.0073191   0.00077276   -0.0080918    -0.016081   0.00043891  -8.0784e-05    0.0005197       17.469       5.8401       2.9913        14435       952.18       11.733        632.4        14435       424.36       637.51        13821            0            0            0       84.741       9.5376        84.88       3.2762       -34998      -1773.2       955.24      0.90334      -2.4101      0.91604        41863   5.3051e+05        70139       4.5123      0.10096            0            0            0            0            0            0            0            0            0         5670          0.8            0  
          0            0          -11      0.11226    0.0064446    0.0063015    0.0001431    0.0046941   -0.0074028   0.00077348   -0.0081762    -0.015417   0.00041943  -7.8832e-05   0.00049826        17.42       5.8365       2.9846        14500       947.76       18.484       606.31        14500       433.74        611.2        13885            0            0            0        84.74       9.5435        84.88       3.2856       -33554      -1793.5       912.83      0.90445      -2.3003      0.91448        41322   5.3083e+05        70655         2.89      0.10154            0            0            0            0            0            0            0            0            0         5670          0.8            0  
          0            0        -10.5      0.11274    0.0064895    0.0062964   0.00019316    0.0044906    -0.007483   0.00077412   -0.0082571    -0.014749   0.00039989  -7.6774e-05   0.00047667       17.373       5.8333       2.9782        14562       943.49       24.949       580.02        14562       442.72       584.71        13946            0            0            0        84.74       9.5487        84.88       3.2944       -32100      -1812.9       870.32      0.90551      -2.1912        0.913        40770   5.3113e+05        71147       2.1595      0.10209            0            0            0            0            0            0            0            0            0         5670          0.8            0  
          0            0          -10       0.1132    0.0065323    0.0062913   0.00024099    0.0042858   -0.0075596   0.00077469   -0.0083343    -0.014077   0.00038027  -7.4662e-05   0.00045493       17.329       5.8305       2.9722        14621       939.39       31.127       553.56        14621        451.3       558.03        14005            0            0            0       84.739       9.5533        84.88       3.3026       -30636      -1831.5        827.6      0.90651      -2.0828       0.9116        40209   5.3138e+05        71616        1.745      0.10262            0            0            0            0            0            0            0            0            0         5670          0.8            0  
          0            0         -9.5      0.11364    0.0065729    0.0062863   0.00028658    0.0040796   -0.0076328   0.00077517   -0.0084079      -0.0134   0.00036053  -7.2529e-05   0.00043306       17.289       5.8281       2.9665        14678       935.44       37.015       526.94        14678       459.47       531.19        14061            0            0            0       84.738       9.5572        84.88       3.3103       -29163      -1849.2       784.64      0.90745       -1.975      0.91027        39637    5.316e+05        72061       1.4787      0.10312            0            0            0            0            0            0            0            0            0         5670          0.8            0  
          0            0           -9      0.11405    0.0066113    0.0062814   0.00032991    0.0038722   -0.0077023    0.0007756   -0.0084779    -0.012719   0.00034067  -7.0377e-05   0.00041105       17.251       5.8261        2.961        14732       931.66       42.613       500.15        14732       467.25       504.19        14114            0            0            0       84.738       9.5606        84.88       3.3175       -27681      -1866.1       741.43      0.90834      -1.8677      0.90901        39056   5.3179e+05        72483       1.2939       0.1036            0            0            0            0            0            0            0            0            0         5670          0.8            0  
          0            0         -8.5      0.11445    0.0066477    0.0062767   0.00037098    0.0036636   -0.0077683   0.00077598   -0.0085443    -0.012034   0.00032071  -6.8209e-05   0.00038892       17.216       5.8242        2.956        14782       928.06       47.918       473.21        14782       474.61       477.03        14165            0            0            0       84.737       9.5637        84.88       3.3243       -26190        -1882       697.98      0.90918      -1.7611      0.90784        38465   5.3196e+05        72881       1.1586      0.10405            0            0            0            0            0            0            0            0            0         5670          0.8            0  
          0            0           -8      0.11482    0.0066822    0.0062725   0.00040977    0.0034539   -0.0078305   0.00077637   -0.0086069    -0.011345   0.00030071  -6.5958e-05   0.00036666       17.183       5.8224       2.9512        14830       924.67       52.928       446.12        14830       481.57       449.72        14212            0            0            0       84.737       9.5667        84.88       3.3307       -24692      -1897.1       654.45      0.90997      -1.6549      0.90673        37865   5.3213e+05        73260       1.0558      0.10448            0            0            0            0            0            0            0            0            0         5670          0.8            0  
          0            0         -7.5      0.11517    0.0067147    0.0062685   0.00044627    0.0032432   -0.0078891   0.00077671   -0.0086658    -0.010653   0.00028059  -6.3712e-05    0.0003443       17.152       5.8207       2.9467        14876       921.48       57.642        418.9        14876       488.12       422.28        14257            0            0            0       84.736       9.5694        84.88       3.3367       -23186      -1911.3       610.67      0.91071      -1.5492      0.90569        37256   5.3228e+05        73616      0.97535      0.10489            0            0            0            0            0            0            0            0            0         5670          0.8            0  
          0            0           -7       0.1155    0.0067452    0.0062647   0.00048047    0.0030315    -0.007944   0.00077702   -0.0087211   -0.0099581   0.00026036  -6.1475e-05   0.00032183       17.123       5.8192       2.9425        14918       918.48       62.059       391.55        14918       494.25       394.71        14299            0            0            0       84.736       9.5719        84.88       3.3423       -21673      -1924.6       566.64       0.9114      -1.4439      0.90473        36638   5.3241e+05        73950      0.91109      0.10526            0            0            0            0            0            0            0            0            0         5670          0.8            0  
          0            0         -6.5       0.1158    0.0067744     0.006262   0.00051235    0.0028188   -0.0079951   0.00077742   -0.0087725   -0.0092598   0.00023981  -5.9456e-05   0.00029927       17.094       5.8171       2.9386        14957       915.79       66.177       364.09        14957       499.97       367.03        14338            0            0            0       84.735       9.5753        84.88       3.3479       -20153        -1937       521.92      0.91203      -1.3391      0.90384        36012    5.326e+05        74270      0.85893      0.10562            0            0            0            0            0            0            0            0            0         5670          0.8            0  
          0            0           -6      0.11609    0.0068012    0.0062592   0.00054191    0.0026053   -0.0080426   0.00077766   -0.0088203   -0.0085587   0.00021932   -5.729e-05   0.00027661       17.069       5.8155        2.935        14994       913.25       69.995       336.51        14994       505.27       339.22        14374            0            0            0       84.735        9.578        84.88        3.353       -18627      -1948.5       477.33      0.91262      -1.2346      0.90301        35376   5.3275e+05        74564      0.81605      0.10594            0            0            0            0            0            0            0            0            0         5670          0.8            0  
          0            0         -5.5      0.11635    0.0068197    0.0062505   0.00056914     0.002391   -0.0080878   0.00077644   -0.0088643    -0.007855   0.00020091   -5.296e-05   0.00025387       17.061       5.8193       2.9317        15028       910.11       73.512       308.83        15028       510.16       311.32        14408            0            0            0       84.735       9.5718        84.88       3.3545       -17095      -1959.5       437.26      0.91316      -1.1305      0.90226        34733   5.3241e+05        74767      0.78051      0.10624            0            0            0            0            0            0            0            0            0         5670          0.8            0  
          0            0           -5      0.11659    0.0068354    0.0062414   0.00059403    0.0021759   -0.0081294   0.00077505   -0.0089045   -0.0071489   0.00018262  -4.8433e-05   0.00023105       17.056       5.8238       2.9287        15059       907.09       76.727       281.05        15059       514.62       283.32        14438            0            0            0       84.734       9.5644        84.88       3.3554       -15559      -1969.5       397.45      0.91365      -1.0268      0.90157        34081     5.32e+05        74939      0.75088      0.10652            0            0            0            0            0            0            0            0            0         5670          0.8            0  
          0            0         -4.5       0.1168    0.0068489    0.0062323   0.00061657    0.0019602   -0.0081672   0.00077362   -0.0089409   -0.0064406   0.00016428  -4.3888e-05   0.00020816       17.054       5.8285        2.926        15087       904.24       79.638       253.19        15087       518.66       255.24        14466            0            0            0       84.734       9.5566        84.88       3.3558       -14017      -1978.7       357.52      0.91409     -0.92327      0.90095        33421   5.3157e+05        75087      0.72611      0.10677            0            0            0            0            0            0            0            0            0         5670          0.8            0  
          0            0           -4        0.117    0.0068603    0.0062235   0.00063676    0.0017439   -0.0082013   0.00077218   -0.0089735   -0.0057304   0.00014586  -3.9346e-05   0.00018521       17.054       5.8333       2.9236        15112       901.61       82.246       225.25        15112       522.29       227.07        14491            0            0            0       84.734       9.5488        84.88       3.3558       -12472      -1986.9       317.45      0.91448     -0.82003       0.9004        32753   5.3113e+05        75212      0.70542      0.10699            0            0            0            0            0            0            0            0            0         5670          0.8            0  
          0            0         -3.5      0.11717    0.0068696     0.006215   0.00065458    0.0015271   -0.0082315   0.00077073   -0.0090022   -0.0050184    0.0001274  -3.4805e-05    0.0001622       17.056       5.8381       2.9214        15134       899.18       84.548       197.25        15134       525.48       198.84        14513            0            0            0       84.734       9.5409        84.88       3.3555       -10922      -1994.3       277.26      0.91483     -0.71703      0.89991        32078   5.3069e+05        75314      0.68822      0.10719            0            0            0            0            0            0            0            0            0         5670          0.8            0  
          0            0           -3      0.11731    0.0068769    0.0062068   0.00067005    0.0013098    -0.008258   0.00076926   -0.0090272   -0.0043049   0.00010888  -3.0258e-05   0.00013914       17.059        5.843       2.9196        15153       896.98       86.545       169.18        15153       528.26       170.55        14532            0            0            0       84.735       9.5329        84.88       3.3548      -9369.1      -2000.7       236.97      0.91513     -0.61422      0.89949        31396   5.3024e+05        75394      0.67404      0.10736            0            0            0            0            0            0            0            0            0         5670          0.8            0  
          0            0         -2.5      0.11744    0.0068826    0.0061995   0.00068314    0.0010921   -0.0082805   0.00076785   -0.0090484   -0.0035901   9.0455e-05  -2.5586e-05   0.00011604       17.063       5.8475        2.918        15169       895.06       88.236       141.06        15169        530.6        142.2        14548            0            0            0       84.735       9.5256        84.88        3.354      -7813.4      -2006.1       196.86      0.91539     -0.51159      0.89913        30706   5.2984e+05        75457      0.66254       0.1075            0            0            0            0            0            0            0            0            0         5670          0.8            0  
          0            0           -2      0.11754    0.0068862    0.0061924   0.00069385    0.0008741   -0.0082992   0.00076641   -0.0090657   -0.0028742   7.1977e-05  -2.0928e-05   9.2905e-05       17.069       5.8521       2.9168        15182       893.34        89.62        112.9        15182       532.53       113.81        14561            0            0            0       84.735       9.5181        84.88       3.3528      -6255.3      -2010.7       156.65      0.91559      -0.4091      0.89884        30010   5.2942e+05        75496      0.65345      0.10762            0            0            0            0            0            0            0            0            0         5670          0.8            0  
          0            0         -1.5      0.11762    0.0068876    0.0061854   0.00070219   0.00065581   -0.0083142   0.00076496   -0.0090791   -0.0021574   5.3455e-05  -1.6285e-05    6.974e-05       17.077       5.8569       2.9158        15193       891.81       90.697       84.707        15193       534.02        85.39        14571            0            0            0       84.735       9.5103        84.88       3.3512      -4695.3      -2014.3       116.34      0.91575     -0.30673      0.89861        29307   5.2899e+05        75512      0.64657      0.10771            0            0            0            0            0            0            0            0            0         5670          0.8            0  
          0            0           -1      0.11768     0.006887    0.0061788   0.00070815   0.00043732   -0.0083252   0.00076351   -0.0090887     -0.00144   3.4942e-05  -1.1612e-05   4.6554e-05       17.087       5.8617       2.9151        15200       890.52       91.467       56.485        15200       535.09       56.941        14578            0            0            0       84.735       9.5024        84.88       3.3493      -3133.9        -2017       76.047      0.91587     -0.20444      0.89845        28597   5.2855e+05        75504      0.64175      0.10778            0            0            0            0            0            0            0            0            0         5670          0.8            0  
          0            0         -0.5      0.11771    0.0068861    0.0061743   0.00071172   0.00021869   -0.0083321   0.00076241   -0.0090945  -0.00072208    1.699e-05  -6.3634e-06   2.3354e-05       17.095       5.8651       2.9146        15204       889.67       91.928       28.247        15204       535.73       28.475        14583            0            0            0       84.735       9.4971        84.88       3.3479      -1571.5      -2018.6       36.977      0.91594      -0.1022      0.89836        27881   5.2825e+05        75495       0.6389      0.10782            0            0            0            0            0            0            0            0            0         5670          0.8            0  
          0            0            0      0.11773    0.0068864    0.0061735   0.00071291   3.4362e-14   -0.0083342   0.00076221   -0.0090964   -3.976e-06    3.635e-07   2.1739e-07   1.4611e-07       17.095       5.8657       2.9145        15206       889.47       92.082   4.4383e-09        15206       535.95   4.7302e-09        14584            0            0            0       84.735       9.4961        84.88       3.3477      -8.6533      -2019.2      0.79112      0.91596  -2.0641e-11      0.89832        27159    5.282e+05        75498      0.63796      0.10783            0            0            0            0            0            0            0            0            0         5670          0.8            0  
          0            0          0.5      0.11771    0.0068861    0.0061743   0.00071172  -0.00021869   -0.0083321   0.00076241   -0.0090945   0.00071413  -1.6263e-05   6.7982e-06  -2.3062e-05       17.095       5.8651       2.9146        15204       889.67       91.928      -28.247        15204       535.73      -28.475        14583            0            0            0       84.735       9.4971        84.88       3.3479       1554.2      -2018.6      -35.395      0.91594       0.1022      0.89836        27881   5.2825e+05        75495       0.6389      0.10782            0            0            0            0            0            0            0            0            0         5670          0.8            0  
          0            0            1      0.11768     0.006887    0.0061788   0.00070815  -0.00043732   -0.0083252   0.00076351   -0.0090887     0.001432  -3.4215e-05   1.2047e-05  -4.6262e-05       17.087       5.8617       2.9151        15200       890.52       91.467      -56.485        15200       535.09      -56.941        14578            0            0            0       84.735       9.5024        84.88       3.3493       3116.6        -2017      -74.465      0.91587      0.20444      0.89845        28597   5.2855e+05        75504      0.64175      0.10778            0            0            0            0            0            0            0            0            0         5670          0.8            0  
          0            0          1.5      0.11762    0.0068876    0.0061854   0.00070219  -0.00065581   -0.0083142   0.00076496   -0.0090791    0.0021495  -5.2728e-05   1.6721e-05  -6.9449e-05       17.077       5.8569       2.9158        15193       891.81       90.697      -84.707        15193       534.02       -85.39        14571            0            0            0       84.735       9.5103        84.88       3.3512         4678      -2014.3      -114.76      0.91575      0.30673      0.89861        29307   5.2899e+05        75512      0.64657      0.10771            0            0            0            0            0            0            0            0            0         5670          0.8            0  
          0            0            2      0.11754    0.0068862    0.0061924   0.00069385   -0.0008741   -0.0082992   0.00076641   -0.0090657    0.0028663  -7.1251e-05   2.1364e-05  -9.2615e-05       17.069       5.8521       2.9168        15182       893.34        89.62       -112.9        15182       532.53      -113.81        14561            0            0            0       84.735       9.5181        84.88       3.3528         6238      -2010.7      -155.07      0.91559       0.4091      0.89884        30010   5.2942e+05        75496      0.65345      0.10762            0            0            0            0            0            0            0            0            0         5670          0.8            0  
          0            0          2.5      0.11744    0.0068826    0.0061995   0.00068314   -0.0010921   -0.0082805   0.00076785   -0.0090484    0.0035822   -8.973e-05   2.6023e-05  -0.00011575       17.063       5.8475        2.918        15169       895.06       88.236      -141.06        15169        530.6       -142.2        14548            0            0            0       84.735       9.5256        84.88        3.354       7796.1      -2006.1      -195.28      0.91539      0.51159      0.89913        30706   5.2984e+05        75457      0.66254       0.1075            0            0            0            0            0            0            0            0            0         5670          0.8            0  
          0            0            3      0.11731    0.0068769    0.0062068   0.00067005   -0.0013098    -0.008258   0.00076926   -0.0090272     0.004297  -0.00010816   3.0695e-05  -0.00013885       17.059        5.843       2.9196        15153       896.98       86.545      -169.18        15153       528.26      -170.55        14532            0            0            0       84.735       9.5329        84.88       3.3548       9351.9      -2000.7       -235.4      0.91513      0.61422      0.89949        31396   5.3024e+05        75394      0.67404      0.10736            0            0            0            0            0            0            0            0            0         5670          0.8            0  
          0            0          3.5      0.11717    0.0068696     0.006215   0.00065458   -0.0015271   -0.0082315   0.00077073   -0.0090022    0.0050105  -0.00012667   3.5242e-05  -0.00016191       17.056       5.8381       2.9214        15134       899.18       84.548      -197.25        15134       525.48      -198.84        14513            0            0            0       84.734       9.5409        84.88       3.3555        10905      -1994.3      -275.69      0.91483      0.71703      0.89991        32078   5.3069e+05        75314      0.68822      0.10719            0            0            0            0            0            0            0            0            0         5670          0.8            0  
          0            0            4        0.117    0.0068603    0.0062235   0.00063676   -0.0017439   -0.0082013   0.00077218   -0.0089735    0.0057225  -0.00014514   3.9783e-05  -0.00018493       17.054       5.8333       2.9236        15112       901.61       82.246      -225.25        15112       522.29      -227.07        14491            0            0            0       84.734       9.5488        84.88       3.3558        12454      -1986.9      -315.88      0.91448      0.82003       0.9004        32753   5.3113e+05        75212      0.70542      0.10699            0            0            0            0            0            0            0            0            0         5670          0.8            0  
          0            0          4.5       0.1168    0.0068489    0.0062323   0.00061657   -0.0019602   -0.0081672   0.00077362   -0.0089409    0.0064328  -0.00016355   4.4325e-05  -0.00020788       17.054       5.8285        2.926        15087       904.24       79.638      -253.19        15087       518.66      -255.24        14466            0            0            0       84.734       9.5566        84.88       3.3558        14000      -1978.7      -355.96      0.91409      0.92327      0.90095        33421   5.3157e+05        75087      0.72611      0.10677            0            0            0            0            0            0            0            0            0         5670          0.8            0  
          0            0            5      0.11659    0.0068354    0.0062414   0.00059403   -0.0021759   -0.0081294   0.00077505   -0.0089045     0.007141   -0.0001819   4.8871e-05  -0.00023077       17.056       5.8238       2.9287        15059       907.09       76.727      -281.05        15059       514.62      -283.32        14438            0            0            0       84.734       9.5644        84.88       3.3554        15542      -1969.5      -395.88      0.91365       1.0268      0.90157        34081     5.32e+05        74939      0.75088      0.10652            0            0            0            0            0            0            0            0            0         5670          0.8            0  
          0            0          5.5      0.11635    0.0068197    0.0062505   0.00056914    -0.002391   -0.0080878   0.00077644   -0.0088643    0.0078472  -0.00020019   5.3399e-05  -0.00025359       17.061       5.8193       2.9317        15028       910.11       73.512      -308.83        15028       510.16      -311.32        14408            0            0            0       84.735       9.5718        84.88       3.3545        17078      -1959.5       -435.7      0.91316       1.1305      0.90226        34733   5.3241e+05        74767      0.78051      0.10624            0            0            0            0            0            0            0            0            0         5670          0.8            0  
          0            0            6      0.11609    0.0068012    0.0062592   0.00054191   -0.0026053   -0.0080426   0.00077766   -0.0088203    0.0085509  -0.00021861   5.7728e-05  -0.00027634       17.069       5.8155        2.935        14994       913.25       69.995      -336.51        14994       505.27      -339.22        14374            0            0            0       84.735        9.578        84.88        3.353        18610      -1948.5      -475.77      0.91262       1.2346      0.90301        35376   5.3275e+05        74564      0.81605      0.10594            0            0            0            0            0            0            0            0            0         5670          0.8            0  
          0            0          6.5       0.1158    0.0067744     0.006262   0.00051235   -0.0028188   -0.0079951   0.00077742   -0.0087725     0.009252   -0.0002391   5.9894e-05    -0.000299       17.094       5.8171       2.9386        14957       915.79       66.177      -364.09        14957       499.97      -367.03        14338            0            0            0       84.735       9.5753        84.88       3.3479        20136        -1937      -520.37      0.91203       1.3391      0.90384        36012    5.326e+05        74270      0.85893      0.10562            0            0            0            0            0            0            0            0            0         5670          0.8            0  
          0            0            7       0.1155    0.0067452    0.0062647   0.00048047   -0.0030315    -0.007944   0.00077702   -0.0087211    0.0099503  -0.00025965   6.1913e-05  -0.00032157       17.123       5.8192       2.9425        14918       918.48       62.059      -391.55        14918       494.25      -394.71        14299            0            0            0       84.736       9.5719        84.88       3.3423        21656      -1924.6       -565.1       0.9114       1.4439      0.90473        36638   5.3241e+05        73950      0.91109      0.10526            0            0            0            0            0            0            0            0            0         5670          0.8            0  
          0            0          7.5      0.11517    0.0067147    0.0062685   0.00044627   -0.0032432   -0.0078891   0.00077671   -0.0086658     0.010646  -0.00027989   6.4149e-05  -0.00034404       17.152       5.8207       2.9467        14876       921.48       57.642       -418.9        14876       488.12      -422.28        14257            0            0            0       84.736       9.5694        84.88       3.3367        23169      -1911.3      -609.14      0.91071       1.5492      0.90569        37256   5.3228e+05        73616      0.97535      0.10489            0            0            0            0            0            0            0            0            0         5670          0.8            0  
          0            0            8      0.11482    0.0066822    0.0062725   0.00040977   -0.0034539   -0.0078305   0.00077637   -0.0086069     0.011338  -0.00030001   6.6396e-05   -0.0003664       17.183       5.8224       2.9512        14830       924.67       52.928      -446.12        14830       481.57      -449.72        14212            0            0            0       84.737       9.5667        84.88       3.3307        24675      -1897.1      -652.93      0.90997       1.6549      0.90673        37865   5.3213e+05        73260       1.0558      0.10448            0            0            0            0            0            0            0            0            0         5670          0.8            0  
          0            0          8.5      0.11445    0.0066477    0.0062767   0.00037098   -0.0036636   -0.0077683   0.00077598   -0.0085443     0.012026  -0.00032001   6.8647e-05  -0.00038866       17.216       5.8242        2.956        14782       928.06       47.918      -473.21        14782       474.61      -477.03        14165            0            0            0       84.737       9.5637        84.88       3.3243        26173        -1882      -696.46      0.90918       1.7611      0.90784        38465   5.3196e+05        72881       1.1586      0.10405            0            0            0            0            0            0            0            0            0         5670          0.8            0  
          0            0            9      0.11405    0.0066113    0.0062814   0.00032991   -0.0038722   -0.0077023    0.0007756   -0.0084779     0.012711  -0.00033998   7.0814e-05  -0.00041079       17.251       5.8261        2.961        14732       931.66       42.613      -500.15        14732       467.25      -504.19        14114            0            0            0       84.738       9.5606        84.88       3.3175        27664      -1866.1      -739.92      0.90834       1.8677      0.90901        39056   5.3179e+05        72483       1.2939       0.1036            0            0            0            0            0            0            0            0            0         5670          0.8            0  
          0            0          9.5      0.11364    0.0065729    0.0062863   0.00028658   -0.0040796   -0.0076328   0.00077517   -0.0084079     0.013392  -0.00035984   7.2965e-05   -0.0004328       17.289       5.8281       2.9665        14678       935.44       37.015      -526.94        14678       459.47      -531.19        14061            0            0            0       84.738       9.5572        84.88       3.3103        29146      -1849.2      -783.14      0.90745        1.975      0.91027        39637    5.316e+05        72061       1.4787      0.10312            0            0            0            0            0            0            0            0            0         5670          0.8            0  
          0            0           10       0.1132    0.0065323    0.0062913   0.00024099   -0.0042858   -0.0075596   0.00077469   -0.0083343     0.014069  -0.00037959   7.5099e-05  -0.00045468       17.329       5.8305       2.9722        14621       939.39       31.127      -553.56        14621        451.3      -558.03        14005            0            0            0       84.739       9.5533        84.88       3.3026        30619      -1831.5      -826.12      0.90651       2.0828       0.9116        40209   5.3138e+05        71616        1.745      0.10262            0            0            0            0            0            0            0            0            0         5670          0.8            0  
          0            0         10.5      0.11274    0.0064895    0.0062964   0.00019316   -0.0044906    -0.007483   0.00077412   -0.0082571     0.014742  -0.00039922    7.721e-05  -0.00047643       17.373       5.8333       2.9782        14562       943.49       24.949      -580.02        14562       442.72      -584.71        13946            0            0            0        84.74       9.5487        84.88       3.2944        32083      -1812.9      -868.84      0.90551       2.1912        0.913        40770   5.3113e+05        71147       2.1595      0.10209            0            0            0            0            0            0            0            0            0         5670          0.8            0  
          0            0           11      0.11226    0.0064446    0.0063015    0.0001431   -0.0046941   -0.0074028   0.00077348   -0.0081762      0.01541  -0.00041875   7.9268e-05  -0.00049802        17.42       5.8365       2.9846        14500       947.76       18.484      -606.31        14500       433.74       -611.2        13885            0            0            0        84.74       9.5435        84.88       3.2856        33538      -1793.5      -911.36      0.90445       2.3003      0.91448        41322   5.3083e+05        70655         2.89      0.10154            0            0            0            0            0            0            0            0            0         5670          0.8            0  
          0            0         11.5      0.11176    0.0063976    0.0063067   9.0838e-05   -0.0048962   -0.0073191   0.00077276   -0.0080918     0.016073  -0.00043825   8.1219e-05  -0.00051947       17.469       5.8401       2.9913        14435       952.18       11.733       -632.4        14435       424.36      -637.51        13821            0            0            0       84.741       9.5376        84.88       3.2762        34982      -1773.2      -953.79      0.90334       2.4101      0.91604        41863   5.3051e+05        70139       4.5123      0.10096            0            0            0            0            0            0            0            0            0         5670          0.8            0  
          0            0           12      0.11124    0.0063484    0.0063121   3.6379e-05   -0.0050967   -0.0072319   0.00077196   -0.0080039     0.016732  -0.00045772   8.3029e-05  -0.00054075       17.522       5.8441       2.9983        14368       956.75       4.6988      -658.31        14368       414.59      -663.62        13754            0            0            0       84.742       9.5311        84.88       3.2663        36415      -1752.1      -996.18      0.90217       2.5206      0.91769        42395   5.3015e+05        69600       11.162      0.10036            0            0            0            0            0            0            0            0            0         5670          0.8            0  
          0            0         12.5       0.1107     0.006297    0.0063173  -2.0258e-05   -0.0052957   -0.0071414   0.00077105   -0.0079124     0.017385  -0.00047714   8.4734e-05  -0.00056187       17.579       5.8487       3.0056        14298       961.46      -2.6167      -684.01        14298       404.44      -689.54        13685            0            0            0       84.743       9.5236        84.88       3.2558        37837      -1730.2      -1038.4      0.90094       2.6318      0.91941        42915   5.2973e+05        69037      -19.849      0.09973            0            0            0            0            0            0            0            0            0         5670          0.8            0  
          0            0           13      0.11013    0.0062431    0.0063221  -7.9056e-05   -0.0054931   -0.0070475   0.00076995   -0.0078175     0.018034  -0.00049659   8.6237e-05  -0.00058282       17.641       5.8543       3.0133        14225       966.24      -10.211      -709.51        14225       393.89      -715.24        13612            0            0            0       84.744       9.5146        84.88       3.2445        39248      -1707.4      -1080.8      0.89965       2.7439      0.92122        43425   5.2923e+05        68445      -5.0348     0.099081            0            0            0            0            0            0            0            0            0         5670          0.8            0  
          0            0         13.5      0.10955    0.0061866    0.0063266     -0.00014   -0.0056888   -0.0069504   0.00076869   -0.0077191     0.018676  -0.00051603   8.7563e-05   -0.0006036       17.707       5.8607       3.0213        14150       971.12      -18.082      -734.79        14150       382.96      -740.72        13538            0            0            0       84.745       9.5041        84.88       3.2323        40647      -1683.9      -1123.1       0.8983       2.8568      0.92311        43925   5.2864e+05        67826      -2.8131     0.098407            0            0            0            0            0            0            0            0            0         5670          0.8            0  
          0            0           14      0.10894    0.0061276    0.0063307  -0.00020306   -0.0058828   -0.0068499   0.00076729   -0.0076172     0.019313  -0.00053546   8.8727e-05  -0.00062419       17.779       5.8682       3.0297        14071       976.07      -26.228      -759.85        14071       371.65      -765.98        13460            0            0            0       84.746       9.4919        84.88       3.2193        42033      -1659.5      -1165.4      0.89689       2.9707      0.92509        44413   5.2797e+05        67180      -1.9181      0.09771            0            0            0            0            0            0            0            0            0         5670          0.8            0  
          0            0         14.5      0.10832    0.0060656    0.0063338  -0.00026823    -0.006075   -0.0067463   0.00076569    -0.007512     0.019944  -0.00055496    8.963e-05  -0.00064459       17.858       5.8773       3.0384        13991       981.02      -34.645      -784.67        13991       359.96      -791.01        13380            0            0            0       84.747       9.4772        84.88       3.2051        43407      -1634.4      -1207.8      0.89542       3.0854      0.92716        44890   5.2715e+05        66499      -1.4354      0.09699            0            0            0            0            0            0            0            0            0         5670          0.8            0  
          0            0           15      0.10767    0.0060012    0.0063367  -0.00033548   -0.0062654   -0.0066394   0.00076399   -0.0074034      0.02057  -0.00057434   9.0445e-05  -0.00066479       17.942       5.8874       3.0475        13907       986.07      -43.332      -809.26        13907       347.89      -815.79        13298            0            0            0       84.748        9.461        84.88       3.1901        44767      -1608.5        -1250      0.89388       3.2011      0.92932        45356   5.2625e+05        65794      -1.1341     0.096247            0            0            0            0            0            0            0            0            0         5670          0.8            0  
